# FREQS (CM^-1)
20.1587
20.1587
24.6125
24.6125
27.7148
27.7148
30.22
30.22
31.0803
31.0803
34.9201
34.9201
35.4848
35.4848
35.9962
35.9962
37.8584
41.5518
41.5518
44.5007
44.5007
45.6123
45.6123
46.9184
46.9184
46.9268
46.9268
47.1867
47.1867
47.9061
47.9061
48.4089
48.4089
48.6069
48.6069
48.8516
48.8516
48.9323
48.9323
49.7998
49.7998
50.3252
50.3252
50.9024
50.9024
50.9793
50.9793
51.2939
51.2939
51.4005
51.4005
51.5615
51.5615
52.5325
52.5325
52.5453
52.5453
52.6718
52.6718
52.7867
52.7867
53.2405
53.2405
53.254
53.254
53.2884
53.2884
53.4804
53.4804
53.7797
53.7797
53.9078
53.9078
53.9422
53.9422
53.999
53.999
54.0065
54.0065
54.042
54.042
54.0707
54.0707
54.3295
54.3295
54.9273
54.9273
55.2325
55.2325
55.2764
55.2764
55.5005
55.5005
55.6493
55.6493
55.6561
55.6561
55.7176
55.7176
55.7697
55.7697
55.7838
55.7838
55.8931
55.8931
55.9279
55.9279
56.0985
56.0985
56.2067
56.2067
56.2067
56.2067
56.6113
56.6113
57.0342
57.0342
57.0555
57.0555
57.1847
57.1847
57.3268
57.3268
57.3402
57.3402
57.552
57.552
57.5717
57.5717
57.5755
57.5755
57.5755
57.5755
57.6997
57.6997
57.9546
57.9546
58.1701
58.1701
58.3495
58.3495
58.4975
58.4975
58.6796
58.6796
58.7222
58.7222
59.1437
59.1437
59.202
59.202
59.3098
59.3098
59.3504
59.3504
59.394
59.394
59.4015
59.4015
59.4714
59.4714
59.9185
59.9185
59.9185
59.9185
60.4165
60.4165
60.5004
60.5004
60.8176
60.8176
60.8756
60.8756
60.8979
60.8979
61.0622
61.0622
61.4196
61.4196
61.5669
61.5669
61.7416
61.7416
61.7903
61.7903
61.9598
61.9598
61.9808
61.9808
61.9808
61.9808
61.9957
61.9957
62.3426
62.3426
62.8976
62.8976
62.9932
62.9932
63.0902
63.0902
63.1925
63.1925
63.4168
63.4168
63.4331
63.4331
63.4412
63.4412
63.6926
63.6926
63.8368
63.8368
63.8394
63.8394
63.8428
63.8428
63.9504
63.9504
64.1061
64.1061
64.2097
64.2097
64.238
64.238
64.2697
64.2697
64.3201
64.3201
65.044
65.044
65.1785
65.1785
65.3342
65.3342
65.4851
65.4851
65.7197
65.7197
65.8436
65.8436
65.8877
65.8877
65.9555
65.9555
66.0398
66.0398
66.1755
66.1755
66.2724
66.2724
66.2999
66.2999
66.7421
66.7421
66.894
66.894
67.1882
67.1882
67.2003
67.2003
67.2667
67.2667
67.3015
67.3015
67.3647
67.3647
67.4751
67.4751
67.4751
67.4751
67.6196
67.6196
67.9967
67.9967
68.0888
68.0888
68.1606
68.1606
68.2701
68.2701
68.3423
68.3423
68.3762
68.3762
68.6755
68.6755
68.7508
68.7508
68.7812
68.7812
68.9131
68.9131
69.0257
69.0257
69.0257
69.0257
69.2141
69.2141
69.3247
69.3247
69.3889
69.3889
70.1381
70.1381
70.1395
70.1395
70.3665
70.3665
70.3665
70.3665
70.5194
70.5194
70.5998
70.5998
70.6472
70.6472
70.6651
70.6651
70.7307
70.7307
70.7307
70.7307
71.0044
71.0044
71.1422
71.1422
71.1549
71.1549
71.5988
71.5988
71.7748
71.7748
71.7748
71.7748
71.8783
71.8783
72.039
72.039
72.0543
72.0543
72.1258
72.1258
72.1362
72.1362
72.5416
72.5416
72.6774
72.6774
72.8001
72.8001
72.829
72.829
72.9424
72.9424
73.0133
73.0133
73.0133
73.0133
73.0515
73.0515
73.196
73.196
73.2679
73.2679
73.3102
73.3102
73.3225
73.3225
73.3903
73.3903
73.5815
73.5815
73.6878
73.6878
73.7555
73.7555
73.8409
73.8409
74.0674
74.0674
74.0964
74.0964
74.7121
74.7121
74.7121
74.7121
74.7389
74.7389
74.8182
74.8182
74.9209
74.9209
75.1
75.1
75.1543
75.1543
75.1754
75.1754
75.2092
75.2092
75.2092
75.2092
75.2505
75.2505
75.2505
75.2505
75.3283
75.3283
75.3311
75.3311
75.3573
75.3573
75.5246
75.5246
75.5471
75.5471
75.6606
75.6606
75.821
75.821
75.836
75.836
75.8686
75.8686
75.9951
75.9951
76.0422
76.0422
76.1244
76.1244
76.2408
76.2408
76.2565
76.2565
76.2819
76.2819
76.2937
76.2937
76.3097
76.3097
76.3839
76.3839
76.3839
76.3839
76.577
76.577
76.5965
76.5965
76.62
76.62
76.6276
76.6276
76.6998
76.6998
76.7604
76.7604
76.7702
76.7702
76.8571
76.8571
77.1638
77.1638
77.1665
77.1665
77.3059
77.3059
77.6816
77.6816
77.7337
77.7337
77.7398
77.7398
77.8558
77.8558
77.9774
77.9774
77.9814
77.9814
78.1485
78.1485
78.3561
78.3561
78.5728
78.5728
78.6824
78.6824
78.7442
78.7442
78.7442
78.7442
78.8134
78.8134
78.9438
78.9438
79.2964
79.2964
79.3485
79.3485
79.414
79.414
79.4479
79.4479
79.4654
79.4654
79.5511
79.5511
79.5602
79.5602
79.5602
79.5602
79.5615
79.5615
79.6112
79.6112
79.8111
79.8111
79.8337
79.8337
79.8998
79.8998
79.9061
79.9061
79.9904
79.9904
80.0334
80.0334
80.2215
80.2215
80.2237
80.2237
80.6193
80.6193
80.6707
80.6707
80.8322
80.8322
80.9528
80.9528
80.9538
80.9538
81.1505
81.1505
81.1816
81.1816
81.2961
81.2961
81.5214
81.5214
81.7198
81.7198
81.7664
81.7664
81.7664
81.7664
82.0432
82.0432
82.1024
82.1024
82.1024
82.1024
82.1074
82.1074
82.1243
82.1243
82.2172
82.2172
82.3934
82.3934
82.4333
82.4333
82.8069
82.8069
83.1274
83.1274
83.1603
83.1603
83.1815
83.1815
83.2662
83.2662
83.3726
83.3726
83.4427
83.4427
83.5276
83.5276
83.5874
83.5874
83.8434
83.8434
83.9263
83.9263
83.9945
83.9945
83.9945
83.9945
84.0059
84.0059
84.0483
84.0483
84.139
84.139
84.141
84.141
84.2309
84.2309
84.2808
84.2808
84.2916
84.2916
84.3816
84.3816
84.5377
84.5377
84.5837
84.5837
84.6712
84.6712
84.7536
84.7536
84.7565
84.7565
84.7867
84.7867
84.9009
84.9009
84.9301
84.9301
84.9453
84.9453
84.9456
84.9456
85.0708
85.0882
85.0882
85.2491
85.2491
85.4077
85.4077
85.5066
85.5066
85.621
85.621
85.6972
85.6972
85.7619
85.7619
85.7843
85.7843
85.923
85.923
85.9303
85.9303
86.0562
86.0562
86.0934
86.0934
86.0984
86.0984
86.1276
86.1276
86.3335
86.3335
86.3751
86.3751
86.6357
86.6357
86.6449
86.6449
86.647
86.647
86.6954
86.6954
86.8049
86.8049
86.9313
86.9313
86.9365
86.9365
87.0788
87.0788
87.1527
87.1527
87.2112
87.2112
87.3298
87.3298
87.3298
87.3298
87.3926
87.3926
87.4189
87.4189
87.4387
87.4387
87.4514
87.4514
87.4514
87.4514
87.4669
87.5961
87.5961
87.7005
87.7005
87.9485
87.9485
87.9899
87.9899
88.0114
88.0114
88.0332
88.0332
88.0697
88.0697
88.1676
88.1676
88.4461
88.4461
88.4772
88.4772
88.7288
88.7288
88.7765
88.7765
88.8039
88.8039
88.9438
88.9438
89.0649
89.0649
89.0904
89.1382
89.1382
89.1654
89.1654
89.1974
89.1974
89.2554
89.2554
89.2554
89.2554
89.3045
89.3045
89.5355
89.5355
89.5464
89.5464
90.0438
90.0438
90.0833
90.0833
90.1081
90.1081
90.509
90.509
90.5803
90.5803
90.7818
90.7818
91.078
91.078
91.1006
91.1006
91.1177
91.1177
91.3668
91.3668
91.5669
91.5669
91.5669
91.5669
91.7459
91.7459
91.7717
91.7717
91.7884
91.7884
91.7884
91.7884
91.9675
91.9675
92.029
92.029
92.0654
92.4018
92.4018
92.5626
92.5626
92.6531
92.6531
92.9139
92.9139
92.9213
92.9213
93.0123
93.0123
93.092
93.092
93.2399
93.2399
93.2533
93.2533
93.4879
93.4879
93.5929
93.5929
93.6492
93.6492
93.6492
93.6492
93.6968
93.6968
93.7257
93.7257
93.8722
93.8722
93.8996
93.8996
93.9292
93.9292
94.0742
94.0742
94.1419
94.1419
94.15
94.15
94.2793
94.2793
94.3267
94.3267
94.4614
94.4614
94.7338
94.7338
94.7702
94.7702
94.8094
94.8094
94.8492
94.8492
94.9003
94.9003
94.9151
94.9151
95.0489
95.0489
95.2245
95.2245
95.2552
95.2552
95.531
95.531
95.8773
95.8773
96.1483
96.1483
96.1562
96.1562
96.35
96.35
96.601
96.601
96.7715
96.7715
96.814
96.814
96.953
96.953
96.9916
96.9916
97.3058
97.3058
97.4132
97.4132
97.4629
97.4629
97.4741
97.4741
97.4848
97.4848
97.5061
97.7732
97.7732
97.7732
97.7732
97.8825
97.8825
97.9141
97.9141
98.4242
98.4242
98.5146
98.5146
98.5952
98.5952
98.6098
98.6098
98.7406
98.7406
98.8624
98.8624
98.8627
98.8627
98.8647
98.8647
98.9481
98.9481
99.0736
99.0736
99.0736
99.0736
99.3328
99.3328
99.5254
99.5254
99.6403
99.6403
99.7115
99.7115
99.7428
99.7428
99.9111
99.9111
99.9752
99.9752
100.1123
100.1123
100.1123
100.1123
100.1867
100.1867
100.5782
100.5782
100.5932
100.5932
100.6082
100.6082
100.8429
100.8429
100.9285
100.9285
100.9769
100.9769
101.0597
101.0597
101.1783
101.1783
101.1995
101.1995
101.2358
101.2358
101.3355
101.3355
101.3729
101.3729
101.7628
101.7628
101.8749
101.8749
101.9517
101.9517
102.0239
102.0239
102.0239
102.0239
102.1595
102.1595
102.3073
102.3073
102.3206
102.3206
102.3525
102.3525
102.5924
102.5924
102.6872
102.6872
102.7291
102.8585
102.8585
102.867
102.867
102.9799
102.9799
102.9903
102.9903
103.1629
103.1629
103.2293
103.2293
103.3387
103.3387
103.349
103.349
103.3768
103.3768
103.3927
103.3927
103.5405
103.5405
103.578
103.578
103.5876
103.5876
103.7758
103.7758
103.7844
103.7844
103.8234
103.8234
104.0515
104.0515
104.0515
104.0515
104.2746
104.6667
104.6667
104.6814
104.6814
104.8375
104.8375
105.0639
105.0639
105.2344
105.2344
105.2688
105.2688
105.3335
105.3335
105.352
105.352
105.5886
105.5886
105.8404
105.8404
105.8404
105.8404
105.8556
105.8556
105.9114
105.9114
105.9178
105.9178
105.926
105.926
106.0185
106.0185
106.1466
106.1466
106.2683
106.2683
106.3609
106.3609
106.3869
106.3869
106.3869
106.3869
106.43
106.43
106.4734
106.4734
106.52
106.52
106.5315
106.5315
106.6945
106.6945
106.6945
106.6945
106.7745
106.7745
106.9794
106.9794
107.0252
107.0252
107.0674
107.0674
107.1399
107.1399
107.1415
107.1415
107.1865
107.1865
107.2068
107.2068
107.2979
107.2979
107.3186
107.3186
107.4248
107.4248
107.659
107.659
107.7004
107.7004
107.7419
107.7419
107.743
107.743
107.7928
107.7928
108.02
108.02
108.219
108.219
108.3134
108.3134
108.3466
108.3466
108.4311
108.4311
108.4596
108.4596
108.5998
108.5998
108.6833
108.6833
108.9545
108.9545
109.1128
109.1128
109.198
109.198
109.2063
109.2063
109.2192
109.2192
109.3149
109.3149
109.3529
109.3529
109.5113
109.5113
109.5569
109.5569
109.6319
109.6319
109.7573
109.7573
109.7573
109.7573
109.8017
109.8017
109.8372
109.8372
110.1454
110.1454
110.2067
110.2067
110.2131
110.2131
110.2131
110.2131
110.2646
110.2646
110.4113
110.4113
110.4647
110.4647
110.5022
110.5022
110.5633
110.5633
110.5833
110.5833
110.6852
110.6852
110.8389
110.8389
110.8605
110.8605
110.876
110.876
110.8888
110.8888
111.0091
111.0091
111.1738
111.1738
111.1769
111.1769
111.2418
111.2418
111.2731
111.2731
111.528
111.528
111.5316
111.5316
112.1261
112.1261
112.1261
112.1261
112.2034
112.2034
112.2224
112.2224
112.4047
112.4047
112.5711
112.5711
112.5715
112.5715
112.6112
112.6112
112.6128
112.6128
112.6128
112.6128
112.6677
112.6677
112.6846
112.6846
112.7197
112.7197
112.73
112.73
112.8481
112.8481
112.9072
112.9072
112.9799
112.9799
113.1043
113.1043
113.1671
113.1671
113.4353
113.4353
113.4851
113.4851
113.6299
113.6299
113.6472
113.6472
113.7391
113.7391
113.9699
113.9699
114.0023
114.0023
114.0172
114.0172
114.2107
114.2107
114.2507
114.2507
114.4391
114.4391
114.5695
114.5695
114.6518
114.6518
114.6854
114.6854
114.7604
114.7604
114.8049
114.8049
115.0653
115.0653
115.1055
115.1055
115.1391
115.1391
115.3794
115.3794
115.3801
115.3801
115.3801
115.3801
115.4782
115.4782
115.5526
115.5526
115.554
115.554
115.5838
115.5838
115.5838
115.5838
115.9432
115.9432
115.9483
115.9483
116.0199
116.0199
116.0693
116.0693
116.0783
116.0783
116.1612
116.1612
116.2453
116.2453
116.2725
116.2725
116.3119
116.3119
116.4564
116.4564
116.6315
116.6315
116.7308
116.7308
116.9322
116.9322
116.9331
117.0938
117.0938
117.1569
117.1569
117.1974
117.1974
117.227
117.227
117.2666
117.2666
117.3931
117.3931
117.4607
117.4607
117.4851
117.4851
117.6729
117.6729
117.793
117.793
117.7962
117.7962
117.7962
117.7962
117.8047
117.8047
117.9115
117.9115
117.9643
117.9643
118.0943
118.0943
118.2488
118.2488
118.2777
118.2777
118.3355
118.3355
118.3769
118.3769
118.5504
118.5504
118.654
118.654
118.6918
118.6918
118.751
118.751
118.7806
118.7806
118.8184
118.8184
118.871
118.871
118.9036
118.9036
118.9718
118.9718
118.9918
118.9918
119.086
119.086
119.111
119.111
119.1742
119.1742
119.5434
119.5434
119.6362
119.6362
119.6432
119.6432
119.6817
119.6817
119.8314
119.8314
119.9686
119.9686
119.9989
119.9989
120.1117
120.1117
120.1121
120.1121
120.1247
120.1247
120.1695
120.1695
120.2581
120.2581
120.2599
120.2599
120.4347
120.4347
120.4794
120.4794
120.5867
120.5867
120.8863
120.8863
120.9478
120.9478
120.9521
120.9521
121.018
121.018
121.0855
121.0855
121.0998
121.0998
121.1704
121.1704
121.2771
121.2771
121.2859
121.2859
121.3117
121.3117
121.3117
121.3117
121.3744
121.3744
121.4366
121.4366
121.4828
121.4828
121.5192
121.5192
121.5446
121.5446
121.6508
121.6508
121.7472
121.7472
121.9112
121.9112
121.9256
121.9256
121.9632
121.9632
121.9858
121.9858
121.9896
121.9896
122.0263
122.0263
122.0349
122.0349
122.0349
122.0349
122.0463
122.0463
122.0529
122.0529
122.0773
122.0773
122.1022
122.1022
122.1489
122.1489
122.1489
122.1489
122.2429
122.2429
122.4189
122.4189
122.5167
122.5167
122.5818
122.5818
122.6102
122.6102
122.7712
122.7712
122.9123
122.9123
122.9141
122.9141
122.9612
122.9612
123.0116
123.0116
123.095
123.095
123.4408
123.4408
123.5416
123.5416
123.5768
123.5768
123.6017
123.6017
123.6366
123.6366
123.6508
123.6508
123.6882
123.6882
123.6882
123.6882
123.7061
123.7061
123.7304
123.7304
123.7929
123.7929
123.8073
123.8073
123.8073
123.8073
123.87
123.87
123.9219
123.9219
124.0175
124.0175
124.0402
124.0402
124.2755
124.2755
124.4141
124.4141
124.4308
124.4308
124.4334
124.4334
124.4457
124.4457
124.5655
124.5655
124.5978
124.5978
124.6101
124.6101
124.6106
124.6106
124.6523
124.6523
124.7298
124.7298
124.7415
124.7415
124.791
124.791
124.791
124.791
124.8079
124.8079
124.8468
124.8468
124.9167
124.9167
125.0608
125.0608
125.1602
125.1602
125.2154
125.2154
125.2687
125.2687
125.3076
125.3076
125.3883
125.3883
125.4585
125.4585
125.4838
125.4838
125.4838
125.4838
125.4905
125.4905
125.5091
125.5091
125.5756
125.5756
125.6637
125.6637
125.6641
125.6641
125.6833
125.6833
125.7441
125.7441
125.8139
125.8139
125.8225
125.8225
125.8643
125.8643
125.8643
125.8643
125.876
125.876
125.9104
125.9104
126.0272
126.0272
126.1379
126.1379
126.1628
126.1628
126.1632
126.1632
126.241
126.241
126.2439
126.2439
126.2439
126.2439
126.2722
126.2722
126.3059
126.3059
126.3059
126.3059
126.3671
126.3671
126.486
126.486
126.5311
126.5311
126.5505
126.5505
126.6002
126.6002
126.6121
126.6121
126.6646
126.6646
126.7283
126.7283
126.7928
126.7928
126.8913
126.8913
127.1634
127.1767
127.1767
127.1833
127.1833
127.2271
127.2271
127.271
127.271
127.4516
127.4516
127.4786
127.4786
127.5532
127.5532
127.5681
127.5681
127.597
127.597
127.597
127.597
127.6215
127.6215
127.7192
127.7192
127.7235
127.7235
127.7235
127.7235
127.797
127.797
127.797
127.797
127.8001
127.8001
127.8541
127.8541
127.8687
127.8687
127.9659
127.9659
127.9674
127.9674
128.0958
128.0958
128.1454
128.1454
128.155
128.155
128.1561
128.1561
128.1731
128.1731
128.4027
128.4027
128.4296
128.4296
128.5857
128.5857
128.7457
128.7457
128.9823
128.9823
129.0541
129.0541
129.1568
129.1568
129.1753
129.1753
129.271
129.271
129.3237
129.3237
129.359
129.359
129.3603
129.3603
129.3929
129.3929
129.5115
129.5115
129.6185
129.6185
129.71
129.71
129.8848
129.8848
129.9078
129.9078
130.0011
130.0011
130.1531
130.1531
130.2096
130.2096
130.3504
130.3504
130.3792
130.3792
130.4052
130.4052
130.547
130.547
130.5774
130.5774
130.5774
130.5774
130.6021
130.6021
130.6435
130.6435
130.7011
130.7011
130.9489
130.9489
130.9854
130.9854
131.0386
131.0386
131.0917
131.0917
131.1215
131.1215
131.1261
131.1261
131.2014
131.2014
131.2843
131.2843
131.2879
131.2879
131.3164
131.3164
131.3189
131.3189
131.3659
131.3659
131.4094
131.5109
131.5109
131.6499
131.6499
131.7627
131.7627
131.7813
131.7813
131.8612
131.8612
132.0043
132.0043
132.0273
132.0273
132.0779
132.0779
132.0779
132.0779
132.112
132.112
132.1417
132.1417
132.1417
132.1417
132.1569
132.1569
132.1862
132.1862
132.1864
132.1864
132.2086
132.2086
132.3102
132.3102
132.3354
132.3354
132.4116
132.4116
132.4824
132.4824
132.4989
132.4989
132.5169
132.5169
132.5701
132.5701
132.5744
132.5744
132.7513
132.7513
132.7701
132.7701
132.7934
132.7934
132.8512
132.8512
132.9727
132.9727
133.1063
133.1063
133.2907
133.2907
133.3956
133.3956
133.653
133.653
133.6614
133.6614
133.6903
133.6903
133.6916
133.6916
133.7682
133.7682
133.9559
133.9559
133.9643
133.9643
134.0676
134.0676
134.1825
134.1825
134.2154
134.2154
134.2719
134.2719
134.2785
134.2785
134.3256
134.3256
134.5402
134.5402
134.6514
134.6514
134.7039
134.7039
134.8481
134.8481
134.8817
134.8817
134.9356
134.9356
135.1463
135.1463
135.1625
135.1625
135.2558
135.2558
135.3186
135.3186
135.347
135.347
135.4607
135.4607
135.4706
135.4706
135.5061
135.5061
135.6874
135.6874
135.6981
135.6981
135.7257
135.7257
135.8265
135.8265
135.9015
135.9015
135.9074
135.9074
135.9213
135.9213
136.2362
136.2362
136.293
136.293
136.3065
136.3065
136.3224
136.3224
136.326
136.326
136.4428
136.4428
136.4893
136.4893
136.5209
136.5209
136.5993
136.5993
136.6686
136.6686
136.7141
136.7141
136.7756
136.7756
136.8078
136.8078
136.8194
136.8194
136.8982
136.8982
136.9012
136.9012
136.944
137.0309
137.0309
137.075
137.075
137.1497
137.1497
137.1544
137.1544
137.1548
137.1548
137.2399
137.2399
137.3209
137.3209
137.5655
137.5655
137.5739
137.5739
137.6248
137.6248
137.6283
137.6283
137.8117
137.8117
137.8835
137.8835
137.8865
137.8865
138.0698
138.0698
138.1178
138.1178
138.2445
138.2445
138.2501
138.2916
138.2916
138.404
138.404
138.4396
138.4396
138.5005
138.5005
138.5005
138.5005
138.5549
138.5549
138.5963
138.5963
138.7128
138.7128
138.7389
138.7389
138.7437
138.7437
138.7437
138.7437
138.8234
138.8234
138.8264
138.8264
138.9029
138.9029
138.9029
138.9029
138.9457
138.9457
139.0983
139.0983
139.0996
139.0996
139.0997
139.0997
139.1105
139.1105
139.1708
139.1708
139.2062
139.2062
139.4337
139.4337
139.4724
139.5018
139.5018
139.5018
139.5018
139.5502
139.5502
139.5728
139.5728
139.8363
139.8363
139.8667
139.8667
139.9068
139.9068
139.9888
139.9888
140.0928
140.0928
140.1262
140.1262
140.1268
140.1268
140.2952
140.2952
140.2982
140.2982
140.2982
140.2982
140.3307
140.3307
140.3307
140.3307
140.3626
140.3626
140.3911
140.3911
140.4323
140.4323
140.5277
140.5277
140.6072
140.6072
140.6287
140.6287
140.6287
140.6287
140.7241
140.7241
140.7311
140.7311
140.7311
140.7311
140.782
140.782
140.8683
140.8683
140.9747
140.9747
140.9844
140.9844
141.0422
141.0422
141.073
141.073
141.2865
141.2865
141.3079
141.3079
141.3254
141.3254
141.3544
141.3544
141.5261
141.5261
141.5277
141.5277
141.7053
141.7053
141.7144
141.7144
141.7469
141.7469
141.7717
141.7717
141.7922
141.7922
141.818
141.818
141.8191
141.8191
141.8715
141.8715
141.9009
141.9009
141.9829
141.9829
142.0046
142.0046
142.0236
142.0236
142.0236
142.0236
142.1009
142.1009
142.2727
142.2727
142.3142
142.3142
142.3152
142.3152
142.4328
142.4328
142.4404
142.4404
142.4848
142.4848
142.5829
142.5829
142.6226
142.6226
142.6739
142.6739
142.7221
142.7221
142.7846
142.7846
142.8133
142.8133
143.0328
143.0328
143.0328
143.0328
143.052
143.052
143.0922
143.0922
143.1331
143.1331
143.1331
143.1331
143.1651
143.1651
143.5956
143.5956
143.5991
143.5991
143.6235
143.6235
143.6552
143.6552
143.6552
143.6552
143.6581
143.6581
143.6849
143.6849
143.7331
143.7331
144.2177
144.2177
144.2394
144.2394
144.3731
144.3731
144.476
144.476
144.505
144.505
144.5399
144.5399
144.5795
144.5795
144.7665
144.7665
144.8003
144.8003
144.817
144.817
144.8174
144.8174
144.8174
144.8174
144.8297
144.8297
144.8338
144.8338
144.8846
144.8846
144.9065
144.9065
144.9111
144.9111
144.9533
144.9533
145.0139
145.0139
145.0601
145.0601
145.2369
145.2369
145.3441
145.3441
145.3885
145.3885
145.4089
145.4089
145.4282
145.4282
145.5116
145.5116
145.6644
145.6644
145.7016
145.7016
145.8126
145.8126
145.874
145.874
146.039
146.039
146.1632
146.1632
146.2326
146.2326
146.3188
146.3188
146.356
146.356
146.46
146.46
146.5582
146.703
146.703
147.0463
147.0463
147.0814
147.0814
147.3202
147.3202
147.4065
147.4065
147.4065
147.4065
147.4143
147.4143
147.617
147.617
147.6437
147.6437
147.6461
147.6461
147.7752
147.7752
147.79
147.79
147.8474
147.8474
147.8543
147.8543
147.9859
147.9859
148.0026
148.0026
148.0027
148.0027
148.1319
148.1319
148.3199
148.3199
148.5579
148.5579
148.6541
148.6541
148.6794
148.6794
148.6851
148.6851
148.7356
148.7356
148.7711
148.7711
148.7711
148.7711
148.7979
148.7979
148.8907
148.8907
148.9475
148.9475
149.0159
149.0159
149.0648
149.0648
149.1282
149.1282
149.2055
149.2055
149.218
149.218
149.2275
149.2815
149.2815
149.394
149.394
149.4366
149.4366
149.4782
149.4782
149.5293
149.5293
149.5465
149.5465
149.6024
149.6024
149.641
149.641
149.7482
149.7923
